# arXiv:1707.04147, Fig. 4 (a)
# observed 95% exclusion limits on sigBR(pp->X->gammagamma)
# mX[GeV] | sig*BR_95% [pb]
200.0	1.01E+01
210.0	6.86E+00
220.0	5.87E+00
230.0	5.14E+00
240.0	5.11E+00
250.0	5.36E+00
260.0	4.68E+00
270.0	3.31E+00
280.0	2.94E+00
290.0	3.69E+00
300.0	5.12E+00
310.0	2.58E+00
320.0	1.42E+00
330.0	3.40E+00
340.0	3.26E+00
350.0	3.04E+00
360.0	2.03E+00
370.0	1.59E+00
380.0	2.28E+00
390.0	2.35E+00
400.0	1.62E+00
410.0	1.49E+00
420.0	1.47E+00
430.0	1.47E+00
440.0	1.25E+00
450.0	1.09E+00
460.0	1.04E+00
470.0	1.75E+00
480.0	1.66E+00
490.0	1.60E+00
500.0	1.06E+00
510.0	9.79E-01
520.0	8.71E-01
530.0	1.09E+00
540.0	8.87E-01
550.0	8.78E-01
560.0	9.53E-01
570.0	7.54E-01
580.0	7.89E-01
590.0	8.61E-01
600.0	1.14E+00
610.0	1.00E+00
620.0	9.58E-01
630.0	6.01E-01
640.0	5.30E-01
650.0	6.95E-01
660.0	5.39E-01
670.0	5.48E-01
680.0	6.78E-01
690.0	7.80E-01
700.0	9.01E-01
710.0	8.29E-01
720.0	9.96E-01
730.0	1.02E+00
740.0	4.28E-01
750.0	3.06E-01
760.0	3.24E-01
770.0	6.06E-01
780.0	8.37E-01
790.0	5.23E-01
800.0	3.70E-01
810.0	4.67E-01
820.0	5.54E-01
830.0	6.04E-01
840.0	6.48E-01
850.0	5.47E-01
860.0	4.28E-01
870.0	3.78E-01
880.0	3.18E-01
890.0	2.35E-01
900.0	2.32E-01
910.0	2.88E-01
920.0	2.72E-01
930.0	2.28E-01
940.0	2.26E-01
950.0	2.44E-01
960.0	1.72E-01
970.0	1.82E-01
980.0	3.14E-01
990.0	3.39E-01
1000.0	2.71E-01
1010.0	2.38E-01
1020.0	2.64E-01
1030.0	3.19E-01
1040.0	3.45E-01
1050.0	3.04E-01
1060.0	2.42E-01
1070.0	2.07E-01
1080.0	2.01E-01
1090.0	2.18E-01
1100.0	2.34E-01
1110.0	2.62E-01
1120.0	2.49E-01
1130.0	2.26E-01
1140.0	2.17E-01
1150.0	2.13E-01
1160.0	1.82E-01
1170.0	1.51E-01
1180.0	1.64E-01
1190.0	1.85E-01
1200.0	1.65E-01
1210.0	1.74E-01
1220.0	2.12E-01
1230.0	2.56E-01
1240.0	2.91E-01
1250.0	2.77E-01
1260.0	1.97E-01
1270.0	1.41E-01
1280.0	1.38E-01
1290.0	1.53E-01
1300.0	1.68E-01
1310.0	1.84E-01
1320.0	2.05E-01
1330.0	2.22E-01
1340.0	2.35E-01
1350.0	2.24E-01
1360.0	2.14E-01
1370.0	1.88E-01
1380.0	1.60E-01
1390.0	1.38E-01
1400.0	1.29E-01
1410.0	1.56E-01
1420.0	1.93E-01
1430.0	2.05E-01
1440.0	1.86E-01
1450.0	1.70E-01
1460.0	1.68E-01
1470.0	1.59E-01
1480.0	1.35E-01
1490.0	1.08E-01
1500.0	9.75E-02
1510.0	9.41E-02
1520.0	9.13E-02
1530.0	9.28E-02
1540.0	9.70E-02
1550.0	1.15E-01
1560.0	1.38E-01
1570.0	1.89E-01
1580.0	2.67E-01
1590.0	2.95E-01
1600.0	3.09E-01
1610.0	2.81E-01
1620.0	2.37E-01
1630.0	1.72E-01
1640.0	1.17E-01
1650.0	1.01E-01
1660.0	9.18E-02
1670.0	9.10E-02
1680.0	9.91E-02
1690.0	1.14E-01
1700.0	1.27E-01
1710.0	1.31E-01
1720.0	1.18E-01
1730.0	1.03E-01
1740.0	9.77E-02
1750.0	9.24E-02
1760.0	1.01E-01
1770.0	1.20E-01
1780.0	1.33E-01
1790.0	1.35E-01
1800.0	1.22E-01
1810.0	1.06E-01
1820.0	9.62E-02
1830.0	9.30E-02
1840.0	9.90E-02
1850.0	1.16E-01
1860.0	1.32E-01
1870.0	1.37E-01
1880.0	1.30E-01
1890.0	1.13E-01
1900.0	9.81E-02
1910.0	9.06E-02
1920.0	8.58E-02
1930.0	8.48E-02
1940.0	8.39E-02
1950.0	8.30E-02
1960.0	8.23E-02
1970.0	8.22E-02
1980.0	8.21E-02
1990.0	8.21E-02
2000.0	8.20E-02
2010.0	8.18E-02
2020.0	8.16E-02
2030.0	8.14E-02
2040.0	8.11E-02
2050.0	8.18E-02
2060.0	8.37E-02
2070.0	8.56E-02
2080.0	9.50E-02
2090.0	1.11E-01
2100.0	1.29E-01
2110.0	1.36E-01
2120.0	1.39E-01
2130.0	1.32E-01
2140.0	1.22E-01
2150.0	1.06E-01
2160.0	9.64E-02
2170.0	9.01E-02
2180.0	8.91E-02
2190.0	9.62E-02
2200.0	1.09E-01
2210.0	1.31E-01
2220.0	1.38E-01
2230.0	1.42E-01
2240.0	1.49E-01
2250.0	1.62E-01
2260.0	1.75E-01
2270.0	1.72E-01
2280.0	1.64E-01
2290.0	1.57E-01
2300.0	1.52E-01
2310.0	1.58E-01
2320.0	1.65E-01
2330.0	1.73E-01
2340.0	1.67E-01
2350.0	1.57E-01
2360.0	1.49E-01
2370.0	1.44E-01
2380.0	1.40E-01
2390.0	1.36E-01
2400.0	1.25E-01
2410.0	1.10E-01
2420.0	9.70E-02
2430.0	8.83E-02
2440.0	8.40E-02
2450.0	8.14E-02
2460.0	7.95E-02
2470.0	7.77E-02
2480.0	7.76E-02
2490.0	7.79E-02
2500.0	8.02E-02
2510.0	8.24E-02
2520.0	9.31E-02
2530.0	1.13E-01
2540.0	1.29E-01
2550.0	1.34E-01
2560.0	1.37E-01
2570.0	1.39E-01
2580.0	1.38E-01
2590.0	1.36E-01
2600.0	1.32E-01
2610.0	1.23E-01
2620.0	1.14E-01
2630.0	1.02E-01
2640.0	9.16E-02
2650.0	8.61E-02
2660.0	8.05E-02
2670.0	7.88E-02
2680.0	7.73E-02
2690.0	7.59E-02
2700.0	7.44E-02
